* Program: cpitch
** Version: 1.2.0
* Input: FinchCassins.wav
** Samples: 342048
** Samplerate: 44.10 (kHz)
* Spectrogram Parameters:
** Window size = 401
** FFT size = 512
** Tapers = 5
** Time support = 6.000000
** Frequency locking = 0.010000
** Time locking = 5.000000
* Harmonic template parameters:
** Max pitch jump = 80
** Pitch power threshold = 10000.000000
** Number of lobes = 7
** Lobe decay = 0.850000
** Negative lobe amplitude = 0.350000
** Negative lobe width = 9.000000
** Remask likelihood = True
** Frequency range: (0.017006802721088437, 0.3401360544217687) (rel)
** Pitch range: (0.021, 0.181) (rel)
** Candidate pitch count: 372
* DLFT spectrogram:
** Dimensions: (512, 1898)
* Particle filter parameters:
** Number of chains = 3
** Particles per chain = 100
** Random walk scale = 2.000000
** Backtrace pitch = True
* No mask file; calculating pitch for entire signal
** Element 0, interval (0.00, 7742.86)
+ Chain 0: forward particle filter
+ Chain 0: reverse Vitterbi filter
+ Chain 1: forward particle filter
+ Chain 1: reverse Vitterbi filter
+ Chain 2: forward particle filter
+ Chain 2: reverse Vitterbi filter
*** Pitch calculations:
time	p.sd	p.mmse	p.mmse.sd	p.map	p.map.sd	stim.pow
  0.00	1.3183	2.5525	0.1453	2.3891	0.1390	65.2636
  4.08	1.1908	2.2801	0.0717	1.9237	0.0053	64.6765
  8.16	1.1178	2.5082	0.1754	2.3063	0.4891	62.8937
 12.24	0.8023	2.4655	0.2846	2.4047	0.0699	63.5000
 16.33	0.8263	2.1714	0.1626	1.8070	0.0000	62.7099
 20.41	0.8727	2.4163	0.2238	2.1419	0.0000	64.3419
 24.49	0.4732	2.5502	0.0880	2.3664	0.0000	62.8688
 28.57	0.4094	2.7075	0.1166	2.8668	0.2693	63.3508
 32.65	0.6780	2.7256	0.1333	3.2020	1.0004	62.9896
 36.73	0.9772	3.3830	0.2147	3.2168	0.6287	62.4130
 40.82	0.7017	3.3545	0.3332	3.7973	0.0105	79.8560
 44.90	0.6911	3.2051	0.3416	3.6303	0.0000	87.1840
 48.98	0.6809	3.1770	0.2950	3.5671	0.0000	88.0254
 53.06	0.6456	3.2197	0.2300	3.5462	0.0000	88.7705
 57.14	0.5618	3.3024	0.1583	3.5255	0.0000	89.3862
 61.22	0.4811	3.3534	0.1076	3.5049	0.0000	89.2824
 65.31	0.3640	3.3822	0.0753	3.4640	0.0000	89.1345
 69.39	0.3671	3.3648	0.0693	3.4438	0.0000	88.1792
 73.47	0.3334	3.3677	0.0505	3.4438	0.0000	89.6654
 77.55	0.1974	3.4236	0.0210	3.4438	0.0000	90.6535
 81.63	0.1754	3.4481	0.0123	3.4640	0.0000	91.1090
 85.71	0.2014	3.5176	0.0152	3.5255	0.0000	89.5295
 89.80	0.2256	3.8026	0.0089	3.8270	0.0000	79.3522
 93.88	0.9325	3.6007	0.1026	3.2735	0.0450	70.2706
 97.96	0.8883	3.5035	0.1508	3.4170	0.0094	70.4306
102.04	1.1837	3.8703	0.0829	5.2729	0.0146	74.2054
106.12	1.1801	3.7016	0.1694	5.1708	0.0143	73.6468
110.20	1.3807	3.1956	0.2450	5.1911	0.0000	72.6071
114.29	1.4659	3.0916	0.1836	5.2832	0.0000	71.5604
118.37	1.4221	3.3924	0.2987	5.3039	0.0294	68.6883
122.45	1.4869	3.5754	0.3011	5.2115	0.0289	67.4056
126.53	1.3293	3.6905	0.6014	5.0708	0.0000	71.5520
130.61	1.1566	3.5876	0.7757	4.9243	0.0000	77.1212
134.69	1.1464	3.5588	0.7393	4.7820	0.0000	80.7872
138.78	1.1390	3.5490	0.6478	4.5898	0.0000	80.7014
142.86	1.0948	3.6370	0.4928	4.4572	0.0000	84.0881
146.94	0.9755	3.7239	0.4319	4.3539	0.0000	87.3838
151.02	0.9385	3.7135	0.3953	4.2530	0.0000	86.0591
155.10	0.7599	3.6056	0.2652	3.9874	0.0000	88.7657
159.18	0.5150	3.8343	0.1063	3.9640	0.0000	96.4908
163.27	0.4183	3.8950	0.0872	3.9640	0.0000	97.5140
167.35	0.1611	3.9763	0.0095	3.9874	0.0000	100.0014
171.43	0.1133	4.1773	0.0082	4.1788	0.0000	98.8619
175.51	0.1016	4.3913	0.0037	4.4052	0.0000	95.6354
179.59	0.4277	3.7112	0.1095	3.4640	0.0000	91.3127
183.67	0.0268	3.6932	0.0018	3.6948	0.0000	101.3431
187.76	0.0070	3.6929	0.0005	3.6948	0.0000	104.0409
191.84	0.0042	3.6955	0.0003	3.6948	0.0000	102.7009
195.92	0.0059	3.7153	0.0003	3.7165	0.0000	99.7996
200.00	0.0154	3.6499	0.0014	3.6517	0.0000	95.0361
204.08	0.0230	3.5536	0.0028	3.5462	0.0000	85.2878
208.16	0.3906	3.7051	0.0382	3.8047	0.0000	64.3841
212.24	0.9419	3.4644	0.2406	3.4408	0.7400	65.1725
216.33	0.7043	3.3791	0.1112	3.0948	0.1097	70.1568
220.41	0.3767	3.1664	0.0801	3.2589	0.1765	73.6730
224.49	0.0863	2.6873	0.0080	2.6922	0.0000	81.5601
228.57	0.4752	3.1040	0.0585	2.6922	0.0000	71.4289
232.65	0.6806	3.9529	0.1163	4.0108	0.0000	86.2962
236.73	0.4465	3.2362	0.0946	3.3183	0.0092	98.8918
240.82	0.5238	2.9738	0.1742	3.1911	0.0000	104.9293
244.90	0.5035	2.9815	0.1506	3.1724	0.0000	104.9578
248.98	0.3826	3.0671	0.0988	3.1724	0.0000	105.9005
253.06	0.3515	3.0486	0.0834	3.1354	0.0000	105.4234
257.14	0.2767	3.0649	0.0402	3.1171	0.0000	106.5158
261.22	0.2740	3.0655	0.0532	3.1171	0.0000	106.7478
265.31	0.2548	3.1427	0.0452	3.1911	0.0000	104.9573
269.39	0.2945	3.4441	0.0518	3.4640	0.0000	94.4125
273.47	0.9246	3.8573	0.3447	4.6533	0.0516	77.0763
277.55	1.2452	4.4257	0.6635	5.4627	0.1049	75.6836
281.63	1.1868	3.8551	0.5023	4.8384	0.0000	87.0018
285.71	1.0219	3.8990	0.6001	4.7541	0.0000	90.3078
289.80	0.9816	4.0638	0.6821	4.9243	0.0000	90.3602
293.88	1.0351	4.3911	0.6308	5.1106	0.0282	81.2894
297.96	1.2938	3.8656	0.5570	4.6632	1.0545	73.9012
302.04	0.9800	3.2777	0.4584	4.7910	1.0091	74.3330
306.12	1.2395	3.6644	0.7078	5.2524	0.0251	73.2029
310.20	1.1910	3.6975	0.8825	5.0411	0.0000	75.8179
314.29	1.0888	3.6627	0.9407	4.8764	0.0135	82.4469
318.37	1.0590	3.6743	0.8716	4.6987	0.0000	86.7331
322.45	1.0233	3.6327	0.7565	4.4834	0.0000	89.1443
326.53	0.9988	3.6010	0.6326	4.3284	0.0000	92.4435
330.61	0.8629	3.6354	0.5704	4.1788	0.0000	96.1250
334.69	0.8339	3.5517	0.5075	4.0344	0.0000	97.5259
338.78	0.7806	3.5774	0.4072	3.9640	0.0000	92.7542
342.86	0.6985	3.4090	0.3114	3.6517	0.0000	98.1818
346.94	0.6443	3.5569	0.1676	3.7824	0.0000	103.2846
351.02	0.6113	3.6580	0.1379	3.8495	0.0000	102.6536
355.10	0.5300	3.9559	0.1014	4.0820	0.0000	100.7009
359.18	0.5227	4.1316	0.1147	4.2530	0.0000	99.5004
363.27	0.5529	3.3696	0.1468	3.3837	0.0000	98.1563
367.35	0.5051	3.3650	0.1319	3.5049	0.0000	106.6941
371.43	0.4171	3.4790	0.0799	3.5671	0.0000	107.7581
375.51	0.2653	3.5579	0.0599	3.5880	0.0000	105.8474
379.59	0.2565	3.5159	0.0569	3.5462	0.0000	101.3064
383.67	0.2841	3.3570	0.0750	3.4036	0.0000	82.8197
387.76	0.3593	3.5770	0.0774	3.5671	0.0000	68.3401
391.84	0.2133	3.7667	0.0325	3.7383	0.0000	69.5332
395.92	0.1678	3.7620	0.0168	3.7973	0.0105	67.1369
400.00	0.3499	3.9228	0.0349	3.8949	0.0000	64.7306
404.08	0.3318	4.0609	0.0401	4.0425	0.0449	67.0762
408.16	0.3609	3.8044	0.0702	3.8270	0.0000	70.0235
412.24	0.1702	3.5348	0.0202	3.5462	0.0000	77.2014
416.33	0.3491	4.5651	0.0283	4.4932	0.0986	85.3844
420.41	0.1853	3.3036	0.0052	3.2287	0.0000	100.9495
424.49	0.0165	3.0118	0.0008	3.0094	0.0000	112.1146
428.57	0.0068	2.9599	0.0003	2.9569	0.0000	113.0443
432.65	0.0081	2.9105	0.0006	2.9053	0.0000	111.2668
436.73	0.0084	2.8815	0.0004	2.8884	0.0000	110.8212
440.82	0.0083	2.8762	0.0010	2.8715	0.0000	110.3305
444.90	0.0075	2.9186	0.0004	2.9224	0.0000	110.7597
448.98	0.0089	3.0151	0.0008	3.0094	0.0000	111.6931
453.06	0.0418	3.1821	0.0008	3.1724	0.0000	105.9413
457.14	0.2193	3.8023	0.0087	3.8121	0.0105	87.9155
461.22	0.7276	4.9563	0.0965	5.1006	0.0000	80.1449
465.31	0.3426	4.4214	0.0361	4.4834	0.0000	93.0633
469.39	0.3600	4.2896	0.0931	4.3539	0.0000	99.5693
473.47	0.4021	4.4449	0.1115	4.5097	0.0000	95.1142
477.55	0.5883	4.6643	0.2615	4.8384	0.0000	92.2625
481.63	0.5606	4.8805	0.2146	5.0411	0.0000	84.2160
485.71	0.8344	5.1151	0.3567	5.4723	0.0000	77.3431
489.80	0.9933	4.3598	0.7327	5.3560	0.0295	81.9566
493.88	0.7668	3.8708	0.7098	5.0906	0.0141	78.1699
497.96	0.8353	4.3743	0.4615	4.9243	0.0000	85.0953
502.04	0.7218	4.3640	0.4375	4.7263	0.0000	87.8884
506.12	0.6991	4.1041	0.4914	4.4834	0.0000	91.5014
510.20	0.6670	3.9727	0.4346	4.3284	0.0000	96.6040
514.29	0.6435	3.8120	0.4266	4.1544	0.0000	98.4591
518.37	0.5798	3.6756	0.4010	3.9640	0.0000	101.5991
522.45	0.5372	3.5830	0.3459	3.8270	0.0000	103.8890
526.53	0.5225	3.5444	0.3178	3.7603	0.0000	102.2744
530.61	0.4540	3.5163	0.2042	3.6732	0.0000	100.4289
534.69	0.3737	3.5420	0.1294	3.6303	0.0000	107.7944
538.78	0.3840	3.6472	0.1313	3.7383	0.0000	106.1308
542.86	0.3910	3.9485	0.1240	4.0581	0.0000	102.1719
546.94	0.3645	4.1353	0.1007	4.2034	0.0000	102.5697
551.02	0.3537	3.4827	0.0631	3.4236	0.0000	100.0593
555.10	0.2422	3.5041	0.0501	3.5462	0.0000	107.7923
559.18	0.2690	3.5409	0.0611	3.5880	0.0000	108.8815
563.27	0.2270	3.5769	0.0419	3.6091	0.0000	106.6811
567.35	0.1917	3.5328	0.0299	3.5462	0.0000	96.4302
571.43	0.1446	3.7364	0.0241	3.8270	0.0000	71.9860
575.51	0.1408	3.7755	0.0278	3.8270	0.0000	69.6866
579.59	0.1056	3.6428	0.0160	3.6091	0.0000	71.5918
583.67	0.1442	3.6950	0.0059	3.6732	0.0000	69.4811
587.76	0.2233	3.7170	0.0120	3.7093	0.0205	71.5916
591.84	0.1862	3.8681	0.0141	3.7389	0.0624	70.9311
595.92	0.3573	3.6604	0.0543	3.5814	0.0497	71.5088
600.00	0.4662	3.4891	0.0197	3.4103	0.0094	79.1398
604.08	0.2962	3.6105	0.0084	3.4912	0.0097	95.9830
608.16	0.0433	3.0265	0.0027	3.0271	0.0000	109.5829
612.24	0.0057	2.9055	0.0004	2.9053	0.0000	115.2643
616.33	0.0023	2.8383	0.0001	2.8380	0.0000	114.2379
620.41	0.0020	2.7886	0.0001	2.7885	0.0000	113.2815
624.49	0.0026	2.7399	0.0000	2.7399	0.0000	112.8055
628.57	0.0020	2.7400	0.0002	2.7399	0.0000	113.9260
632.65	0.0085	2.8295	0.0005	2.8380	0.0000	111.7459
636.73	0.0093	2.9835	0.0009	2.9918	0.0000	112.7455
640.82	0.0348	3.1356	0.0045	3.1354	0.0000	107.1702
644.90	0.5299	3.5239	0.1015	3.3771	0.0093	84.7974
648.98	0.4074	4.3283	0.0635	4.2780	0.0000	88.0889
653.06	0.1236	3.8518	0.0146	3.8270	0.0000	101.2837
657.14	0.1203	3.8705	0.0124	3.8722	0.0000	103.2281
661.22	0.0282	4.2359	0.0034	4.2281	0.0000	99.4691
665.31	0.1684	4.4842	0.0046	4.4834	0.0000	93.0117
669.39	0.5592	4.5724	0.0314	4.7541	0.0000	80.9583
673.47	0.7553	4.5943	0.0739	4.9243	0.0000	79.8080
677.55	0.5817	4.7328	0.1042	4.9243	0.0000	80.7777
681.63	0.3416	4.7589	0.0576	4.8384	0.0000	85.1154
685.71	0.0269	4.5994	0.0023	4.6167	0.0000	87.8460
689.80	0.0229	4.4390	0.0013	4.4572	0.0000	93.2176
693.88	0.0229	4.1965	0.0015	4.2034	0.0000	95.6468
697.96	0.0168	3.9513	0.0015	3.9640	0.0000	99.0741
702.04	0.0092	3.7807	0.0004	3.7824	0.0000	103.9069
706.12	0.0101	3.6498	0.0009	3.6517	0.0000	105.2081
710.20	0.0107	3.5087	0.0005	3.5049	0.0000	106.1410
714.29	0.0063	3.3629	0.0002	3.3639	0.0000	106.7737
718.37	0.0104	3.2561	0.0011	3.2668	0.0000	107.3386
722.45	0.0104	3.1843	0.0011	3.1911	0.0000	110.6768
726.53	0.0109	3.1030	0.0011	3.0989	0.0000	112.6714
730.61	0.0053	3.0462	0.0003	3.0449	0.0000	114.4036
734.69	0.0075	2.9886	0.0006	2.9918	0.0000	114.1889
738.78	0.0052	2.9379	0.0003	2.9396	0.0000	114.5379
742.86	0.0027	2.9057	0.0003	2.9053	0.0000	114.3140
746.94	0.0048	2.8873	0.0002	2.8884	0.0000	113.0880
751.02	0.0063	2.8740	0.0006	2.8715	0.0000	113.1684
755.10	0.0041	2.8710	0.0002	2.8715	0.0000	113.8346
759.18	0.0073	2.8756	0.0002	2.8715	0.0000	113.1552
763.27	0.0042	2.9228	0.0001	2.9224	0.0000	114.4531
767.35	0.0040	2.9927	0.0004	2.9918	0.0000	114.9771
771.43	0.0074	3.1022	0.0001	3.0989	0.0000	114.4031
775.51	0.0171	3.2573	0.0006	3.2477	0.0000	109.5654
779.59	0.0092	3.4462	0.0004	3.4438	0.0000	107.8017
783.67	0.0138	3.5874	0.0005	3.5880	0.0000	107.6682
787.76	0.0134	3.6874	0.0012	3.6948	0.0000	108.0554
791.84	0.1011	3.4759	0.0096	3.5255	0.0000	103.7641
795.92	0.0966	2.9296	0.0098	2.9743	0.0000	105.8265
800.00	0.2487	2.7623	0.0094	2.7722	0.0000	95.1639
804.08	0.1512	2.9921	0.0225	3.0449	0.0000	86.3271
808.16	0.0539	2.8912	0.0054	2.8997	0.0080	87.5973
812.24	0.0484	2.8754	0.0012	2.8715	0.0000	83.7644
816.33	0.0434	2.9098	0.0024	2.9053	0.0000	86.8409
820.41	0.1126	2.9465	0.0024	2.9743	0.0000	79.9652
824.49	0.0852	2.9627	0.0049	2.9224	0.0000	83.5971
828.57	0.2246	3.1334	0.0115	3.1911	0.0000	75.8319
832.65	0.3237	3.2996	0.0149	3.5247	0.3644	76.9678
836.73	0.2910	3.9187	0.0287	3.9874	0.0000	92.4907
840.82	0.1187	4.0949	0.0103	4.1060	0.0000	98.8601
844.90	0.0332	4.1962	0.0006	4.2034	0.0000	102.7553
848.98	0.0053	4.2790	0.0004	4.2780	0.0000	106.3960
853.06	0.0083	4.3253	0.0007	4.3284	0.0000	106.9417
857.14	0.0051	4.3294	0.0006	4.3284	0.0000	108.1964
861.22	0.0015	4.3538	0.0001	4.3539	0.0000	108.0760
865.31	0.0140	4.3627	0.0011	4.3539	0.0000	104.9911
869.39	0.0211	4.3566	0.0014	4.3539	0.0000	102.4920
873.47	0.0442	4.3855	0.0011	4.3795	0.0000	100.3831
877.55	0.0670	4.1580	0.0055	4.1544	0.0000	99.0594
881.63	0.1153	4.3079	0.0132	4.2530	0.0000	96.7885
885.71	0.0652	4.1163	0.0043	4.1301	0.0000	98.6866
889.80	0.1244	4.4560	0.0059	4.5097	0.0000	95.3476
893.88	0.0535	3.8994	0.0100	3.8722	0.0000	102.0704
897.96	0.1114	4.2562	0.0017	4.3284	0.0000	98.3732
902.04	0.0540	3.8680	0.0103	3.8270	0.0000	103.1520
906.12	0.1793	4.2610	0.0120	4.1060	0.0000	97.1466
910.20	0.0499	3.7513	0.0122	3.7383	0.0000	102.8942
914.29	0.1495	3.8890	0.0139	3.8270	0.0000	99.9180
918.37	0.0891	3.5866	0.0075	3.5741	0.0197	102.8227
922.45	0.0673	3.6148	0.0059	3.5880	0.0000	103.0908
926.53	0.1244	3.7697	0.0117	3.6948	0.0000	99.8012
930.61	0.0498	3.5240	0.0088	3.4844	0.0000	104.7485
934.69	0.0998	3.8601	0.0046	3.7824	0.0000	99.5866
938.78	0.0671	3.3533	0.0015	3.3247	0.0000	104.8007
942.86	0.0316	3.4098	0.0029	3.4036	0.0000	104.7493
946.94	0.0949	3.7424	0.0043	3.7824	0.0000	101.1107
951.02	0.0384	3.1789	0.0057	3.1724	0.0000	108.7432
955.10	0.0193	3.2295	0.0007	3.2287	0.0000	111.6751
959.18	0.0717	3.4027	0.0077	3.4236	0.0000	102.9068
963.27	0.0177	3.1844	0.0032	3.1724	0.0000	111.7076
967.35	0.0094	3.1969	0.0004	3.1911	0.0000	114.1685
971.43	0.0088	3.1475	0.0004	3.1539	0.0000	115.1949
975.51	0.0092	3.0738	0.0016	3.0808	0.0000	115.2660
979.59	0.0045	3.0089	0.0003	3.0094	0.0000	116.3259
983.67	0.0064	2.9372	0.0007	2.9396	0.0000	115.1552
987.76	0.0074	2.8691	0.0006	2.8715	0.0000	114.7470
991.84	0.0104	2.8129	0.0010	2.8049	0.0000	113.6506
995.92	0.0103	2.7706	0.0013	2.7722	0.0000	113.4317
1000.00	0.0072	2.7359	0.0011	2.7399	0.0000	114.4866
1004.08	0.0081	2.6590	0.0005	2.6608	0.0000	113.0511
1008.16	0.0203	2.6301	0.0015	2.6298	0.0000	106.8995
1012.24	0.0728	2.6929	0.0024	2.6922	0.0000	83.8114
1016.33	0.1831	3.1664	0.0261	3.1354	0.0000	74.6139
1020.41	0.0495	3.0924	0.0040	3.0449	0.0000	83.8018
1024.49	0.0325	2.9750	0.0030	2.9743	0.0000	83.6725
1028.57	0.0435	2.9240	0.0039	2.9224	0.0000	88.3377
1032.65	0.1477	3.0853	0.0079	3.0808	0.0000	75.5583
1036.73	0.0883	2.8950	0.0091	2.8884	0.0000	83.9929
1040.82	0.0218	2.7627	0.0032	2.7722	0.0000	97.9862
1044.90	0.0096	2.7561	0.0013	2.7560	0.0000	108.1695
1048.98	0.0070	2.7524	0.0001	2.7560	0.0000	111.2077
1053.06	0.0069	2.6780	0.0009	2.6764	0.0000	113.3699
1057.14	0.0040	2.5830	0.0001	2.5839	0.0000	115.3102
1061.22	0.0035	2.5248	0.0003	2.5240	0.0000	115.3929
1065.31	0.0023	2.5094	0.0000	2.5093	0.0000	115.7755
1069.39	0.0144	2.4441	0.0006	2.4511	0.0000	110.6747
1073.47	0.0145	2.4683	0.0012	2.4655	0.0000	105.0150
1077.55	0.0506	2.6127	0.0049	2.5688	0.0000	98.1822
1081.63	0.1374	2.7346	0.0338	2.7410	0.1845	89.2524
1085.71	0.8172	3.1549	0.5723	3.7769	1.0743	93.6557
1089.80	0.8678	3.1006	0.6162	3.5869	1.0129	98.9854
1093.88	0.7925	2.8802	0.5865	3.3354	0.9386	101.9518
1097.96	1.1133	3.0408	0.5817	3.1296	0.9363	92.1807
1102.04	0.8846	2.6255	0.5736	3.0335	0.8754	102.2521
1106.12	0.8978	3.0507	0.6156	3.1867	0.9080	96.6262
1110.20	0.7954	2.9363	0.6055	3.1091	0.9060	103.0835
1114.29	0.8604	3.3185	0.6524	3.0979	0.8748	97.2296
1118.37	0.6887	2.8762	0.5683	2.9908	0.8445	101.2930
1122.45	0.6116	3.0097	0.7461	3.1161	0.8799	95.8087
1126.53	0.4184	2.1458	0.5064	2.1413	0.6046	101.9302
1130.61	0.3148	2.0343	0.5134	2.0672	0.5837	104.5525
1134.69	0.3200	2.0207	0.5176	2.0916	0.5906	109.7434
1138.78	0.3216	2.0638	0.5273	2.1287	0.6011	112.6148
1142.86	0.3111	2.1190	0.5522	2.1793	0.6154	115.9082
1146.94	0.3215	2.1726	0.5586	2.2310	0.6300	114.8300
1151.02	0.3258	2.2094	0.5749	2.2705	0.6411	115.4244
1155.10	0.3619	2.2557	0.5641	2.3108	0.6525	115.5797
1159.18	0.3858	2.3061	0.5578	2.3518	0.6641	115.4161
1163.27	0.3944	2.3878	0.5665	2.4076	0.6799	114.7360
1167.35	0.3843	2.4689	0.5776	2.4648	0.6960	115.9350
1171.43	0.4187	2.5988	0.5628	2.5530	0.7209	114.9416
1175.51	0.4585	2.7677	0.5331	2.6599	0.7511	113.5450
1179.59	0.5610	2.9840	0.5315	2.8706	0.8106	105.5113
1183.67	0.6225	3.1337	0.5037	2.9908	0.8445	100.3410
1187.76	0.4521	2.4695	0.4985	2.4218	0.6839	107.7367
1191.84	0.3209	2.1843	0.4547	2.1039	0.5941	100.2994
1195.92	0.3596	2.3216	0.4260	2.2179	0.6263	99.2088
1200.00	0.3817	2.7216	0.5719	2.6044	0.7381	109.3771
1204.08	0.0979	2.7198	0.7587	2.7071	0.7644	112.3723
1208.16	0.0277	2.6638	0.7513	2.6756	0.7555	111.7450
1212.24	0.0085	2.5581	0.7217	2.5530	0.7209	113.8221
1216.33	0.0188	2.4700	0.6989	2.4648	0.6960	106.1851
1220.41	0.1030	2.4215	0.6744	2.3381	0.6602	85.8488
1224.49	0.1080	2.4586	0.6843	2.4793	0.7001	83.3521
1228.57	0.0942	2.4245	0.6926	2.4360	0.6879	81.5433
1232.65	0.1705	2.4874	0.7335	2.5232	0.7125	78.2546
1236.73	0.1749	2.4463	0.7126	2.4648	0.6960	76.3931
1240.82	0.1264	2.4469	0.7265	2.4938	0.7042	78.5813
1244.90	0.1540	2.4879	0.7544	2.6136	0.7380	79.6400
1248.98	0.1886	2.6871	0.7751	2.7779	0.7872	82.7044
1253.06	0.1352	2.9347	0.8709	2.9734	0.8396	91.8105
1257.14	0.1059	3.0393	0.8853	3.0618	0.8646	98.3905
1261.22	0.0758	3.1172	0.8943	3.1345	0.8851	104.8912
1265.31	0.0557	3.2144	0.9140	3.2277	0.9114	106.6995
1269.39	0.0406	3.3771	0.9576	3.3827	0.9552	104.8852
1273.47	0.0178	3.4441	0.9720	3.4427	0.9721	104.1855
1277.55	0.0149	3.4942	0.9879	3.5038	0.9894	98.3617
1281.63	0.0649	3.2646	0.9186	3.2658	0.9222	94.3943
1285.71	0.0755	3.0933	0.8676	3.1161	0.8799	92.6349
1289.80	0.0713	3.0985	0.8760	3.1161	0.8799	89.7008
1293.88	0.4425	3.0098	0.8654	2.9044	0.8201	84.3278
1297.96	0.7106	3.8770	1.1423	4.2817	1.2005	85.0813
1302.04	0.5014	3.9268	1.2570	4.1095	1.1522	93.6323
1306.12	0.3630	3.7795	1.1546	3.8937	1.0995	96.3064
1310.20	0.2456	3.5562	1.0709	3.6292	1.0248	102.0016
1314.29	0.1533	3.2751	0.9804	3.3237	0.9385	103.2493
1318.37	0.1033	3.0464	0.8914	3.0618	0.8646	107.4590
1322.45	0.1381	2.9691	0.8540	2.9908	0.8445	108.0493
1326.53	0.4386	2.6729	0.7483	2.9560	0.8347	103.1291
1330.61	0.2485	2.3474	0.6338	2.3244	0.6564	109.0958
1334.69	0.2662	2.6090	0.6962	2.5831	0.7294	113.5119
1338.78	0.2772	2.6664	0.7233	2.6444	0.7467	112.5357
1342.86	0.2862	2.6270	0.6978	2.5983	0.7337	113.6924
1346.94	0.2841	2.5872	0.6715	2.5530	0.7209	115.0254
1351.02	0.3448	2.5248	0.5858	2.4504	0.6919	114.7652
1355.10	0.3596	2.4240	0.5093	2.3244	0.6564	114.8345
1359.18	0.3514	2.3175	0.4199	2.1793	0.6154	112.3005
1363.27	0.4642	2.5894	0.3341	2.5173	0.7084	102.2228
1367.35	0.3860	2.5607	0.2294	2.2573	0.6374	97.6962
1371.43	0.5455	2.8813	0.2854	2.9430	1.0938	83.4329
1375.51	0.4534	2.7858	0.1018	2.7934	0.4064	79.9196
1379.59	0.3674	2.9523	0.0903	3.0628	0.0000	81.9436
1383.67	0.2616	3.0284	0.0287	3.1354	0.0000	80.1574
1387.76	0.2712	2.8725	0.0570	2.9396	0.0000	79.0102
1391.84	0.2555	2.9224	0.0506	2.9918	0.0000	86.1551
1395.92	0.2061	3.5556	0.0368	3.6091	0.0000	91.8241
1400.00	0.0367	3.6405	0.0012	3.6517	0.0000	98.7869
1404.08	0.0207	3.6994	0.0027	3.6948	0.0000	103.8654
1408.16	0.0136	3.8056	0.0013	3.8047	0.0000	108.6849
1412.24	0.0110	3.9163	0.0007	3.9178	0.0000	109.2015
1416.33	0.0100	4.0086	0.0004	4.0108	0.0000	107.5944
1420.41	0.0165	4.0637	0.0020	4.0581	0.0000	103.7722
1424.49	0.0629	3.9460	0.0005	3.9178	0.0000	94.5535
1428.57	0.1583	3.6891	0.0075	3.7824	0.0000	86.5422
1432.65	0.1709	3.4109	0.0123	3.3837	0.0000	85.8690
1436.73	0.2252	3.2971	0.0103	3.3577	0.0466	85.0816
1440.82	0.9796	4.5415	0.2501	5.2318	0.0145	86.2928
1444.90	0.7000	4.7450	0.3970	5.0708	0.0000	94.1568
1448.98	0.6263	4.5345	0.3219	4.7820	0.0000	96.6817
1453.06	0.5594	4.2628	0.2541	4.4834	0.0000	102.9696
1457.14	0.5200	3.7690	0.2640	3.9640	0.0000	104.9644
1461.22	0.3229	3.6533	0.0868	3.7165	0.0000	109.6563
1465.31	0.2786	3.5477	0.0654	3.5880	0.0000	106.9100
1469.39	0.5698	3.0322	0.0539	3.5671	0.0000	101.7719
1473.47	0.2669	2.7769	0.0678	2.8270	0.0156	110.1390
1477.55	0.2349	3.0951	0.0406	3.1171	0.0000	113.5097
1481.63	0.1214	3.1637	0.0105	3.1724	0.0000	114.3547
1485.71	0.0345	3.1165	0.0008	3.1171	0.0000	114.3893
1489.80	0.0099	3.0188	0.0021	3.0271	0.0000	113.8217
1493.88	0.0085	2.8680	0.0012	2.8715	0.0000	114.0192
1497.96	0.0110	2.7072	0.0010	2.7080	0.0000	114.2145
1502.04	0.0841	2.5583	0.0061	2.5093	0.0000	106.6350
